* Sea-Bird SBE19plus  Data File:
* FileName = myfile.hex
* Software version 2.2.6
* Temperature SN = 7321
* Conductivity SN = 7321
* System UpLoad Time = Jul 21 2014 10:14:59
* <ApplicationData>
* <Seaterm232>
* <SoftwareVersion>2.2.6</SoftwareVersion>
* <BuildDate>05-Mar-2013</BuildDate>
* </Seaterm232>
* </ApplicationData>
* <InstrumentState>
* <HardwareData DeviceType='SBE19plus' SerialNumber='01907321'>
*    <Manufacturer>Sea-Bird Electronics, Inc.</Manufacturer>
*    <FirmwareVersion>2.5.2</FirmwareVersion>
*    <FirmwareDate>12 Mar 2013 11:50</FirmwareDate>
*    <CommandSetVersion>1.3</CommandSetVersion>
*    <PCBAssembly PCBSerialNum='54623' AssemblyNum='41054H'/>
*    <PCBAssembly PCBSerialNum='54122' AssemblyNum='41580B'/>
*    <PCBAssembly PCBSerialNum='53995' AssemblyNum='41606'/>
*    <PCBAssembly PCBSerialNum='55594' AssemblyNum='41059D'/>
*    <MfgDate>29-MAR-2013</MfgDate>
*    <InternalSensors>
*       <Sensor id='Main Temperature'>
*          <type>temperature0</type>
*          <SerialNumber>01907321</SerialNumber>
*       </Sensor>
*       <Sensor id='Main Conductivity'>
*          <type>conductivity-0</type>
*          <SerialNumber>01907321</SerialNumber>
*       </Sensor>
*       <Sensor id='Main Pressure'>
*          <type>strain-0</type>
*          <SerialNumber>3830745</SerialNumber>
*       </Sensor>
*    </InternalSensors>
*    <ExternalSensors>
*       <Sensor id='volt 0'>
*          <type>SBE 43 OXY</type>
*          <SerialNumber>432601</SerialNumber>
*       </Sensor>
*       <Sensor id='volt 1'>
*          <type>not assigned</type>
*          <SerialNumber>not assigned</SerialNumber>
*       </Sensor>
*       <Sensor id='volt 2'>
*          <type>ECO-FLNTURT CHL</type>
*          <SerialNumber>FLNTURT-2667</SerialNumber>
*       </Sensor>
*       <Sensor id='volt 3'>
*          <type>ECO-FLNTURT TURB</type>
*          <SerialNumber>FLNTURT-2667</SerialNumber>
*       </Sensor>
*       <Sensor id='volt 4'>
*          <type>not assigned</type>
*          <SerialNumber>not assigned</SerialNumber>
*       </Sensor>
*       <Sensor id='volt 5'>
*          <type>not assigned</type>
*          <SerialNumber>not assigned</SerialNumber>
*       </Sensor>
*       <Sensor id='serial'>
*          <type>not assigned</type>
*          <SerialNumber>not assigned</SerialNumber>
*       </Sensor>
*    </ExternalSensors>
* </HardwareData>
* <StatusData DeviceType='SBE19plus' SerialNumber='01907321'>
*    <DateTime>2014-07-21T10:11:26</DateTime>
*    <LoggingState>not logging</LoggingState>
*    <EventSummary numEvents='0'/>
*    <Power>
*       <vMain>13.4</vMain>
*       <vLith>8.8</vLith>
*       <iMain>62.0</iMain>
*       <iPump>62.9</iPump>
*       <iExt01> 4.8</iExt01>
*       <iExt2345>24.4</iExt2345>
*    </Power>
*    <MemorySummary>
*       <Bytes>77979</Bytes>
*       <Samples>4587</Samples>
*       <SamplesFree>3865892</SamplesFree>
*       <SampleLength>17</SampleLength>
*       <Profiles>10</Profiles>
*    </MemorySummary>
* </StatusData>
* <ConfigurationData DeviceType='SBE19plus' SerialNumber='01907321'>
*    <ProfileMode>
*       <ScansToAverage>1</ScansToAverage>
*       <MinimumCondFreq>3200</MinimumCondFreq>
*       <PumpDelay>0</PumpDelay>
*       <AutoRun>no</AutoRun>
*       <IgnoreSwitch>no</IgnoreSwitch>
*    </ProfileMode>
*    <Battery>
*       <Type>alkaline</Type>
*       <CutOff>7.5</CutOff>
*    </Battery>
*    <DataChannels>
*       <ExtVolt0>yes</ExtVolt0>
*       <ExtVolt1>no</ExtVolt1>
*       <ExtVolt2>yes</ExtVolt2>
*       <ExtVolt3>yes</ExtVolt3>
*       <ExtVolt4>no</ExtVolt4>
*       <ExtVolt5>no</ExtVolt5>
*       <SBE38>no</SBE38>
*       <WETLABS>no</WETLABS>
*       <OPTODE>no</OPTODE>
*       <SBE63>no</SBE63>
*       <GTD>no</GTD>
*    </DataChannels>
*    <EchoCharacters>yes</EchoCharacters>
*    <OutputExecutedTag>yes</OutputExecutedTag>
*    <OutputFormat>raw HEX</OutputFormat>
* </ConfigurationData>
* <CalibrationCoefficients DeviceType='SBE19plus' SerialNumber='01907321'>
*    <Calibration format='TEMP1' id='Main Temperature'>
*       <SerialNum>01907321</SerialNum>
*       <CalDate>19-Apr-13</CalDate>
*       <TA0>1.274250e-03</TA0>
*       <TA1>2.711930e-04</TA1>
*       <TA2>-9.818442e-07</TA2>
*       <TA3>1.745792e-07</TA3>
*       <TOFFSET>0.000000e+00</TOFFSET>
*    </Calibration>
*    <Calibration format='WBCOND0' id='Main Conductivity'>
*       <SerialNum>01907321</SerialNum>
*       <CalDate>19-Apr-13</CalDate>
*       <G>-9.698820e-01</G>
*       <H>1.308425e-01</H>
*       <I>-3.009542e-04</I>
*       <J>3.899377e-05</J>
*       <CPCOR>-9.570000e-08</CPCOR>
*       <CTCOR>3.250000e-06</CTCOR>
*       <CSLOPE>1.000000e+00</CSLOPE>
*    </Calibration>
*    <Calibration format='STRAIN0' id='Main Pressure'>
*       <SerialNum>3830745</SerialNum>
*       <CalDate>11-Apr-13</CalDate>
*       <PA0>-1.586986e+00</PA0>
*       <PA1>2.644737e-03</PA1>
*       <PA2>1.551887e-11</PA2>
*       <PTCA0>5.256627e+05</PTCA0>
*       <PTCA1>-4.662673e+01</PTCA1>
*       <PTCA2>8.546632e-01</PTCA2>
*       <PTCB0>2.512650e+01</PTCB0>
*       <PTCB1>-5.000000e-04</PTCB1>
*       <PTCB2>0.000000e+00</PTCB2>
*       <PTEMPA0>-6.044749e+01</PTEMPA0>
*       <PTEMPA1>5.351299e+01</PTEMPA1>
*       <PTEMPA2>-2.666787e-01</PTEMPA2>
*       <POFFSET>0.000000e+00</POFFSET>
*       <PRANGE>8.700000e+02</PRANGE>
*    </Calibration>
*    <Calibration format='VOLT0' id='Volt 0'>
*       <OFFSET>-4.745369e-02</OFFSET>
*       <SLOPE>1.248820e+00</SLOPE>
*    </Calibration>
*    <Calibration format='VOLT0' id='Volt 1'>
*       <OFFSET>-4.755158e-02</OFFSET>
*       <SLOPE>1.249298e+00</SLOPE>
*    </Calibration>
*    <Calibration format='VOLT0' id='Volt 2'>
*       <OFFSET>-4.704421e-02</OFFSET>
*       <SLOPE>1.248665e+00</SLOPE>
*    </Calibration>
*    <Calibration format='VOLT0' id='Volt 3'>
*       <OFFSET>-4.770947e-02</OFFSET>
*       <SLOPE>1.248327e+00</SLOPE>
*    </Calibration>
*    <Calibration format='VOLT0' id='Volt 4'>
*       <OFFSET>-4.724842e-02</OFFSET>
*       <SLOPE>1.247527e+00</SLOPE>
*    </Calibration>
*    <Calibration format='VOLT0' id='Volt 5'>
*       <OFFSET>-4.797158e-02</OFFSET>
*       <SLOPE>1.247900e+00</SLOPE>
*    </Calibration>
*    <Calibration format='FREQ0' id='external frequency channel'>
*       <EXTFREQSF>9.999925e-01</EXTFREQSF>
*    </Calibration>
* </CalibrationCoefficients>
* <EventCounters DeviceType='SBE19plus' SerialNumber='01907321'>
*    <EventSummary numEvents='0'/>
* </EventCounters></InstrumentState>
* <Headers>
* cast  10 21 Jul 2014 10:02:46 samples 3175 to 4587, avg = 1, stop = mag switch
# nquan = 8
# nvalues = 1413                                  
# units = specified
# name 0 = scan: Scan Count
# name 1 = tv290C: Temperature [ITS-90, deg C]
# name 2 = c0mS/cm: Conductivity [mS/cm]
# name 3 = prFAILS: Pressure, Strain Gauge [db]
# name 4 = sbeox0ML/L: Oxygen, SBE 43 [ml/l]
# name 5 = turbWETntu0: Turbidity, WET Labs ECO [NTU]
# name 6 = flECO-AFL: Fluorescence, WET Labs ECO-AFL/FL [mg/m^3]
# name 7 = flag:  0.000e+00
# span 0 =          1,       1413                 
# span 1 =    14.9758,    21.6216                 
# span 2 =   0.002534,  39.163043                 
# span 3 =      0.110,     14.975                 
# span 4 =     3.4808,     6.0796                 
# span 5 =    -7.2572,   616.8829                 
# span 6 =    -0.5996,     2.1137                 
# span 7 = 0.0000e+00, 0.0000e+00                 
# interval = seconds: 0.25
# start_time = Jul 21 2014 10:02:46 [Instrument's time stamp, header]
# bad_flag = -9.990e-29
# <Sensors count="6" >
#   <sensor Channel="1" >
#     <!-- Count, Temperature -->
#     <TemperatureSensor SensorID="58" >
#       <SerialNumber>7321</SerialNumber>
#       <CalibrationDate>19-Apr-13</CalibrationDate>
#       <A0>1.27425000e-003</A0>
#       <A1>2.71193000e-004</A1>
#       <A2>-9.81844100e-007</A2>
#       <A3>1.74579200e-007</A3>
#       <Slope>1.00000000</Slope>
#       <Offset>0.0000</Offset>
#     </TemperatureSensor>
#   </sensor>
#   <sensor Channel="2" >
#     <!-- Frequency 0, Conductivity -->
#     <ConductivitySensor SensorID="3" >
#       <SerialNumber>7321</SerialNumber>
#       <CalibrationDate>19-Apr-13</CalibrationDate>
#       <UseG_J>1</UseG_J>
#       <!-- Cell const and series R are applicable only for wide range sensors. -->
#       <SeriesR>0.0000</SeriesR>
#       <CellConst>2000.0000</CellConst>
#       <ConductivityType>0</ConductivityType>
#       <Coefficients equation="0" >
#         <A>0.00000000e+000</A>
#         <B>0.00000000e+000</B>
#         <C>0.00000000e+000</C>
#         <D>0.00000000e+000</D>
#         <M>0.0</M>
#         <CPcor>-9.57000000e-008</CPcor>
#       </Coefficients>
#       <Coefficients equation="1" >
#         <G>-9.69882000e-001</G>
#         <H>1.30842500e-001</H>
#         <I>-3.00954200e-004</I>
#         <J>3.89937700e-005</J>
#         <CPcor>-9.57000000e-008</CPcor>
#         <CTcor>3.2500e-006</CTcor>
#         <!-- WBOTC not applicable unless ConductivityType = 1. -->
#         <WBOTC>0.00000000e+000</WBOTC>
#       </Coefficients>
#       <Slope>1.00000000</Slope>
#       <Offset>0.00000</Offset>
#     </ConductivitySensor>
#   </sensor>
#   <sensor Channel="3" >
#     <!-- Count, Pressure, Strain Gauge -->
#     <PressureSensor SensorID="46" >
#       <SerialNumber>7321</SerialNumber>
#       <CalibrationDate>11-Apr-13</CalibrationDate>
#       <PA0>-1.58698634e+000</PA0>
#       <PA1>2.64473656e-003</PA1>
#       <PA2>1.55188714e-011</PA2>
#       <PTEMPA0>-6.04474936e+001</PTEMPA0>
#       <PTEMPA1>5.35129950e+001</PTEMPA1>
#       <PTEMPA2>-2.66678730e-001</PTEMPA2>
#       <PTCA0>5.25662714e+005</PTCA0>
#       <PTCA1>-4.66267257e+001</PTCA1>
#       <PTCA2>8.54663158e-001</PTCA2>
#       <PTCB0>2.51265000e+001</PTCB0>
#       <PTCB1>-5.00000000e-004</PTCB1>
#       <PTCB2>0.00000000e+000</PTCB2>
#       <Offset>0.000000</Offset>
#     </PressureSensor>
#   </sensor>
#   <sensor Channel="4" >
#     <!-- A/D voltage 0, Oxygen, SBE 43 -->
#     <OxygenSensor SensorID="38" >
#       <SerialNumber>2601</SerialNumber>
#       <CalibrationDate>17-Apr-13</CalibrationDate>
#       <Use2007Equation>1</Use2007Equation>
#       <CalibrationCoefficients equation="0" >
#         <!-- Coefficients for Owens-Millard equation. -->
#         <Boc>0.0000</Boc>
#         <Soc>0.0000e+000</Soc>
#         <offset>0.0000</offset>
#         <Pcor>0.00e+000</Pcor>
#         <Tcor>0.0000</Tcor>
#         <Tau>0.0</Tau>
#       </CalibrationCoefficients>
#       <CalibrationCoefficients equation="1" >
#         <!-- Coefficients for Sea-Bird equation - SBE calibration in 2007 and later. -->
#         <Soc>4.6051e-001</Soc>
#         <offset>-0.5409</offset>
#         <A>-2.7351e-003</A>
#         <B> 1.4001e-004</B>
#         <C>-2.5649e-006</C>
#         <D0> 2.5826e+000</D0>
#         <D1> 1.92634e-004</D1>
#         <D2>-4.64803e-002</D2>
#         <E> 3.6000e-002</E>
#         <Tau20> 1.5500</Tau20>
#         <H1>-3.3000e-002</H1>
#         <H2> 5.0000e+003</H2>
#         <H3> 1.4500e+003</H3>
#       </CalibrationCoefficients>
#     </OxygenSensor>
#   </sensor>
#   <sensor Channel="5" >
#     <!-- A/D voltage 1, Fluorometer, WET Labs ECO-AFL/FL -->
#     <FluoroWetlabECO_AFL_FL_Sensor SensorID="20" >
#       <SerialNumber>2667</SerialNumber>
#       <CalibrationDate>26-Mar-13</CalibrationDate>
#       <ScaleFactor>5.30000000e+001</ScaleFactor>
#       <!-- Dark output -->
#       <Vblank>0.0680</Vblank>
#     </FluoroWetlabECO_AFL_FL_Sensor>
#   </sensor>
#   <sensor Channel="6" >
#     <!-- A/D voltage 2, Turbidity Meter, WET Labs, ECO-NTU -->
#     <TurbidityMeter SensorID="67" >
#       <SerialNumber>2667</SerialNumber>
#       <CalibrationDate>26-Mar-13</CalibrationDate>
#       <ScaleFactor>204.000000</ScaleFactor>
#       <!-- Dark output -->
#       <DarkVoltage>0.068000</DarkVoltage>
#     </TurbidityMeter>
#   </sensor>
# </Sensors>
# datcnv_date = Jul 21 2014 10:15:35, 7.23.1 [datcnv_vars = 7]
# datcnv_in = myfile.hex myfile.xmlcon
# datcnv_skipover = 0
# datcnv_ox_hysteresis_correction = yes
# datcnv_ox_tau_correction = yes
# file_type = ascii
*END*
          1    21.5897   0.003034      0.153     6.0707    -5.4829    -0.1629  0.000e+00
          2    21.5899   0.002978      0.153     6.0748    -5.6230    -0.1588  0.000e+00
          3    21.5904   0.003034      0.153     6.0703    -5.3428    -0.1305  0.000e+00
          4    21.5905   0.003034      0.153     6.0786    -5.4206    -0.1507  0.000e+00
          5    21.5908   0.002978      0.149     6.0714    -5.4829    -0.1831  0.000e+00
          6    21.5910   0.003006      0.149     6.0737    -5.4829    -0.1548  0.000e+00
          7    21.5913   0.002951      0.153     6.0747    -5.4985    -0.1346  0.000e+00
          8    21.5915   0.002923      0.149     6.0763    -5.5296    -0.1588  0.000e+00
          9    21.5917   0.002951      0.153     6.0719    -5.3428    -0.1871  0.000e+00
         10    21.5921   0.002951      0.149     6.0723    -5.5452    -0.1507  0.000e+00
         11    21.5924   0.002867      0.149     6.0722    -5.5452    -0.1305  0.000e+00
         12    21.5927   0.002895      0.150     6.0669    -5.6074    -0.1426  0.000e+00
         13    21.5931   0.002895      0.148     6.0740    -5.4673    -0.1467  0.000e+00
         14    21.5934   0.002867      0.144     6.0751    -5.5140    -0.1426  0.000e+00
         15    21.5937   0.002840      0.148     6.0729    -5.5607    -0.1426  0.000e+00
         16    21.5941   0.002840      0.148     6.0708    -5.4829    -0.1548  0.000e+00
         17    21.5943   0.002867      0.150     6.0756    -5.5918    -0.1790  0.000e+00
         18    21.5945   0.002840      0.148     6.0730    -5.5763    -0.1346  0.000e+00
         19    21.5950   0.002534      0.144     6.0713    -5.5140    -0.1548  0.000e+00
         20    21.5950   0.002812      0.146     6.0701    -5.4829    -0.1467  0.000e+00
         21    21.5954   0.002784      0.150     6.0718    -5.5296    -0.1507  0.000e+00
         22    21.5958   0.002784      0.150     6.0714    -4.7514    -0.1629  0.000e+00
         23    21.5962   0.002812      0.146     6.0719    -4.8136    -0.1467  0.000e+00
         24    21.5967   0.002784      0.150     6.0732    -4.6891    -0.1224  0.000e+00
         25    21.5969   0.002784      0.145     6.0737    -4.7825    -0.1305  0.000e+00
         26    21.5974   0.002812      0.148     6.0725    -4.6580     0.5286  0.000e+00
         27    21.5978   0.002784      0.148     6.0713    -4.7202     0.5124  0.000e+00
         28    21.5982   0.002812      0.146     6.0728    -4.6736     0.4801  0.000e+00
         29    21.5984   0.002784      0.145     6.0709    -4.7202     0.4882  0.000e+00
         30    21.5989   0.002784      0.146     6.0732    -3.7708     0.2051  0.000e+00
         31    21.5990   0.002812      0.146     6.0741    -3.7708     0.2092  0.000e+00
         32    21.5993   0.002784      0.145     6.0726    -3.8020     0.1647  0.000e+00
         33    21.5997   0.002840      0.145     6.0737    -3.7086     0.1728  0.000e+00
         34    21.5999   0.002978      0.147     6.0755    -3.7397     0.1808  0.000e+00
         35    21.6001   0.002951      0.147     6.0732    -6.5257    -0.5834  0.000e+00
         36    21.6003   0.003034      0.145     6.0740    -6.4946    -0.5996  0.000e+00
         37    21.6006   0.003090      0.147     6.0705    -6.3545    -0.5915  0.000e+00
         38    21.6009   0.003090      0.149     6.0692    -6.5413    -0.5794  0.000e+00
         39    21.6013   0.003145      0.145     6.0694    -6.7125    -0.3650  0.000e+00
         40    21.6014   0.003256      0.145     6.0668    -6.7436    -0.3327  0.000e+00
         41    21.6021   0.003228      0.145     6.0674    -6.6346    -0.3367  0.000e+00
         42    21.6023   0.003228      0.145     6.0690    -6.7280    -0.3448  0.000e+00
         43    21.6027   0.003256      0.143     6.0706    -5.6074    -0.3812  0.000e+00
         44    21.6032   0.003284      0.143     6.0697    -5.7164    -0.4176  0.000e+00
         45    21.6033   0.003339      0.145     6.0742    -5.7786    -0.4257  0.000e+00
         46    21.6036   0.003312      0.145     6.0737    -5.7786    -0.4095  0.000e+00
         47    21.6041   0.003395      0.147     6.0733    -5.7164    -0.1305  0.000e+00
         48    21.6044   0.003339      0.147     6.0746    -5.8409    -0.1548  0.000e+00
         49    21.6048   0.003367      0.141     6.0730    -5.7631    -0.1386  0.000e+00
         50    21.6050   0.003339      0.145     6.0724    -5.6385    -0.1629  0.000e+00
         51    21.6054   0.003395      0.149     6.0758    -5.6697    -0.1467  0.000e+00
         52    21.6059   0.003312      0.149     6.0726    -6.0588    -0.1426  0.000e+00
         53    21.6063   0.003228      0.145     6.0677    -5.9031    -0.1426  0.000e+00
         54    21.6068   0.003284      0.143     6.0713    -6.0276    -0.1305  0.000e+00
         55    21.6068   0.003312      0.145     6.0691    -6.0121    -0.1467  0.000e+00
         56    21.6073   0.003284      0.145     6.0715    -5.9809     0.2334  0.000e+00
         57    21.6075   0.003284      0.143     6.0735    -6.0121     0.2698  0.000e+00
         58    21.6079   0.003256      0.145     6.0702    -6.0432     0.2536  0.000e+00
         59    21.6085   0.003228      0.145     6.0682    -5.9498     0.2455  0.000e+00
         60    21.6085   0.003228      0.145     6.0721    -4.4712     0.5205  0.000e+00
         61    21.6088   0.003201      0.147     6.0734    -4.4712     0.5003  0.000e+00
         62    21.6090   0.003201      0.145     6.0750    -4.5179     0.4760  0.000e+00
         63    21.6092   0.003228      0.145     6.0715    -4.5335     0.5043  0.000e+00
         64    21.6093   0.003145      0.145     6.0705     1.6299     0.0353  0.000e+00
         65    21.6097   0.003090      0.147     6.0727     1.5677     0.0434  0.000e+00
         66    21.6098   0.003145      0.145     6.0699     1.6144     0.0353  0.000e+00
         67    21.6101   0.003090      0.147     6.0683     1.7856     0.0515  0.000e+00
         68    21.6105   0.003145      0.145     6.0705     1.6766     0.0798  0.000e+00
         69    21.6110   0.003090      0.149     6.0681    -6.6969    -0.3489  0.000e+00
         70    21.6111   0.003090      0.147     6.0708    -6.7436    -0.3327  0.000e+00
         71    21.6116   0.003090      0.145     6.0738    -6.7280    -0.3287  0.000e+00
         72    21.6119   0.003034      0.147     6.0740    -6.7747    -0.3570  0.000e+00
         73    21.6122   0.003034      0.145     6.0757    -4.3623    -0.5632  0.000e+00
         74    21.6122   0.003034      0.145     6.0737    -4.1132    -0.5511  0.000e+00
         75    21.6127   0.003090      0.143     6.0715    -4.2222    -0.5389  0.000e+00
         76    21.6127   0.003034      0.143     6.0750    -4.2845    -0.5511  0.000e+00
         77    21.6129   0.003006      0.143     6.0677    -5.7786    -0.1467  0.000e+00
         78    21.6130   0.003034      0.147     6.0679    -5.6230    -0.1305  0.000e+00
         79    21.6136   0.003006      0.147     6.0666    -5.9343    -0.1629  0.000e+00
         80    21.6138   0.002951      0.147     6.0721    -5.6385    -0.1224  0.000e+00
         81    21.6143   0.002978      0.147     6.0690    -5.7164    -0.1467  0.000e+00
         82    21.6152   0.003006      0.145     6.0709    -5.8097    -0.1588  0.000e+00
